# filename: 1.5deg-2.0deg-rsm-2h30mins_11358-as-grown_004.dat
# reflection: (004)
# type: Projection of 100 omega2theta scans
# x-axis: omega2theta 
# 
# Omega	2Theta	Phi  	Chi   	X    	Y    	Z    	q_para	q_perp	Intensity
# [deg]	[deg] 	[deg]	[deg] 	[mm] 	[mm] 	[mm] 	[nm-1]	[nm-1]	[counts/s]
33.1494	66.6696	2.82	-0.23	10.00	-20.00	7.326	0.02308	7.13375	1.0	
33.1594	66.6896	2.82	-0.23	10.00	-20.00	7.326	0.02309	7.13564	1.2	
33.1694	66.7096	2.82	-0.23	10.00	-20.00	7.326	0.02310	7.13753	1.0	
33.1794	66.7296	2.82	-0.23	10.00	-20.00	7.326	0.02310	7.13943	1.3	
33.1894	66.7496	2.82	-0.23	10.00	-20.00	7.326	0.02311	7.14132	1.2	
33.1994	66.7696	2.82	-0.23	10.00	-20.00	7.326	0.02311	7.14321	1.1	
33.2094	66.7896	2.82	-0.23	10.00	-20.00	7.326	0.02312	7.14510	1.3	
33.2194	66.8096	2.82	-0.23	10.00	-20.00	7.326	0.02313	7.14699	1.2	
33.2294	66.8296	2.82	-0.23	10.00	-20.00	7.326	0.02313	7.14888	1.1	
33.2394	66.8496	2.82	-0.23	10.00	-20.00	7.326	0.02314	7.15078	0.8	
33.2494	66.8696	2.82	-0.23	10.00	-20.00	7.326	0.02314	7.15267	1.4	
33.2594	66.8896	2.82	-0.23	10.00	-20.00	7.326	0.02315	7.15456	1.0	
33.2694	66.9096	2.82	-0.23	10.00	-20.00	7.326	0.02316	7.15645	1.3	
33.2794	66.9296	2.82	-0.23	10.00	-20.00	7.326	0.02316	7.15834	1.4	
33.2894	66.9496	2.82	-0.23	10.00	-20.00	7.326	0.02317	7.16023	1.3	
33.2994	66.9696	2.82	-0.23	10.00	-20.00	7.326	0.02318	7.16212	1.4	
33.3094	66.9896	2.82	-0.23	10.00	-20.00	7.326	0.02318	7.16401	1.2	
33.3194	67.0096	2.82	-0.23	10.00	-20.00	7.326	0.02319	7.16590	1.2	
33.3294	67.0296	2.82	-0.23	10.00	-20.00	7.326	0.02319	7.16779	1.0	
33.3394	67.0496	2.82	-0.23	10.00	-20.00	7.326	0.02320	7.16967	1.2	
33.3494	67.0696	2.82	-0.23	10.00	-20.00	7.326	0.02321	7.17156	1.3	
33.3594	67.0896	2.82	-0.23	10.00	-20.00	7.326	0.02321	7.17345	1.1	
33.3694	67.1096	2.82	-0.23	10.00	-20.00	7.326	0.02322	7.17534	1.4	
33.3794	67.1296	2.82	-0.23	10.00	-20.00	7.326	0.02322	7.17723	1.5	
33.3894	67.1496	2.82	-0.23	10.00	-20.00	7.326	0.02323	7.17912	1.3	
33.3994	67.1696	2.82	-0.23	10.00	-20.00	7.326	0.02324	7.18100	1.1	
33.4094	67.1896	2.82	-0.23	10.00	-20.00	7.326	0.02324	7.18289	1.4	
33.4194	67.2096	2.82	-0.23	10.00	-20.00	7.326	0.02325	7.18478	1.3	
33.4294	67.2296	2.82	-0.23	10.00	-20.00	7.326	0.02325	7.18666	1.3	
33.4394	67.2496	2.82	-0.23	10.00	-20.00	7.326	0.02326	7.18855	1.4	
33.4494	67.2696	2.82	-0.23	10.00	-20.00	7.326	0.02327	7.19044	1.7	
33.4594	67.2896	2.82	-0.23	10.00	-20.00	7.326	0.02327	7.19232	1.3	
33.4694	67.3096	2.82	-0.23	10.00	-20.00	7.326	0.02328	7.19421	1.7	
33.4794	67.3296	2.82	-0.23	10.00	-20.00	7.326	0.02329	7.19610	1.7	
33.4894	67.3496	2.82	-0.23	10.00	-20.00	7.326	0.02329	7.19798	1.6	
33.4994	67.3696	2.82	-0.23	10.00	-20.00	7.326	0.02330	7.19987	1.5	
33.5094	67.3896	2.82	-0.23	10.00	-20.00	7.326	0.02330	7.20175	1.5	
33.5194	67.4096	2.82	-0.23	10.00	-20.00	7.326	0.02331	7.20364	1.5	
33.5294	67.4296	2.82	-0.23	10.00	-20.00	7.326	0.02332	7.20552	1.4	
33.5394	67.4496	2.82	-0.23	10.00	-20.00	7.326	0.02332	7.20741	1.4	
33.5494	67.4696	2.82	-0.23	10.00	-20.00	7.326	0.02333	7.20929	1.9	
33.5594	67.4896	2.82	-0.23	10.00	-20.00	7.326	0.02333	7.21118	1.5	
33.5694	67.5096	2.82	-0.23	10.00	-20.00	7.326	0.02334	7.21306	1.5	
33.5794	67.5296	2.82	-0.23	10.00	-20.00	7.326	0.02335	7.21494	1.9	
33.5894	67.5496	2.82	-0.23	10.00	-20.00	7.326	0.02335	7.21683	1.9	
33.5994	67.5696	2.82	-0.23	10.00	-20.00	7.326	0.02336	7.21871	1.7	
33.6094	67.5896	2.82	-0.23	10.00	-20.00	7.326	0.02336	7.22059	2.0	
33.6194	67.6096	2.82	-0.23	10.00	-20.00	7.326	0.02337	7.22247	2.3	
33.6294	67.6296	2.82	-0.23	10.00	-20.00	7.326	0.02338	7.22436	2.4	
33.6394	67.6496	2.82	-0.23	10.00	-20.00	7.326	0.02338	7.22624	1.7	
33.6494	67.6696	2.82	-0.23	10.00	-20.00	7.326	0.02339	7.22812	2.0	
33.6594	67.6896	2.82	-0.23	10.00	-20.00	7.326	0.02340	7.23000	2.2	
33.6694	67.7096	2.82	-0.23	10.00	-20.00	7.326	0.02340	7.23189	2.4	
33.6794	67.7296	2.82	-0.23	10.00	-20.00	7.326	0.02341	7.23377	2.9	
33.6894	67.7496	2.82	-0.23	10.00	-20.00	7.326	0.02341	7.23565	2.9	
33.6994	67.7696	2.82	-0.23	10.00	-20.00	7.326	0.02342	7.23753	3.1	
33.7094	67.7896	2.82	-0.23	10.00	-20.00	7.326	0.02343	7.23941	3.6	
33.7194	67.8096	2.82	-0.23	10.00	-20.00	7.326	0.02343	7.24129	5.3	
33.7294	67.8296	2.82	-0.23	10.00	-20.00	7.326	0.02344	7.24317	6.5	
33.7394	67.8496	2.82	-0.23	10.00	-20.00	7.326	0.02344	7.24505	8.0	
33.7494	67.8696	2.82	-0.23	10.00	-20.00	7.326	0.02345	7.24693	20.6	
33.7594	67.8896	2.82	-0.23	10.00	-20.00	7.326	0.02346	7.24881	74.2	
33.7694	67.9096	2.82	-0.23	10.00	-20.00	7.326	0.02346	7.25069	393.0	
33.7794	67.9296	2.82	-0.23	10.00	-20.00	7.326	0.02347	7.25257	1916.5	
33.7894	67.9496	2.82	-0.23	10.00	-20.00	7.326	0.02347	7.25445	2558.7	
33.7994	67.9696	2.82	-0.23	10.00	-20.00	7.326	0.02348	7.25633	888.8	
33.8094	67.9896	2.82	-0.23	10.00	-20.00	7.326	0.02349	7.25821	291.7	
33.8194	68.0096	2.82	-0.23	10.00	-20.00	7.326	0.02349	7.26008	203.4	
33.8294	68.0296	2.82	-0.23	10.00	-20.00	7.326	0.02350	7.26196	195.8	
33.8394	68.0496	2.82	-0.23	10.00	-20.00	7.326	0.02350	7.26384	188.9	
33.8494	68.0696	2.82	-0.23	10.00	-20.00	7.326	0.02351	7.26572	195.5	
33.8594	68.0896	2.82	-0.23	10.00	-20.00	7.326	0.02352	7.26760	195.3	
33.8694	68.1096	2.82	-0.23	10.00	-20.00	7.326	0.02352	7.26947	200.5	
33.8794	68.1296	2.82	-0.23	10.00	-20.00	7.326	0.02353	7.27135	203.4	
33.8894	68.1496	2.82	-0.23	10.00	-20.00	7.326	0.02354	7.27323	207.5	
33.8994	68.1696	2.82	-0.23	10.00	-20.00	7.326	0.02354	7.27510	210.1	
33.9094	68.1896	2.82	-0.23	10.00	-20.00	7.326	0.02355	7.27698	217.8	
33.9194	68.2096	2.82	-0.23	10.00	-20.00	7.326	0.02355	7.27886	216.3	
33.9294	68.2296	2.82	-0.23	10.00	-20.00	7.326	0.02356	7.28073	208.6	
33.9394	68.2496	2.82	-0.23	10.00	-20.00	7.326	0.02357	7.28261	205.9	
33.9494	68.2696	2.82	-0.23	10.00	-20.00	7.326	0.02357	7.28448	202.3	
33.9594	68.2896	2.82	-0.23	10.00	-20.00	7.326	0.02358	7.28636	194.6	
33.9694	68.3096	2.82	-0.23	10.00	-20.00	7.326	0.02358	7.28823	190.0	
33.9794	68.3296	2.82	-0.23	10.00	-20.00	7.326	0.02359	7.29011	187.3	
33.9894	68.3496	2.82	-0.23	10.00	-20.00	7.326	0.02360	7.29198	183.9	
33.9994	68.3696	2.82	-0.23	10.00	-20.00	7.326	0.02360	7.29386	181.0	
34.0094	68.3896	2.82	-0.23	10.00	-20.00	7.326	0.02361	7.29573	176.2	
34.0194	68.4096	2.82	-0.23	10.00	-20.00	7.326	0.02361	7.29760	172.6	
34.0294	68.4296	2.82	-0.23	10.00	-20.00	7.326	0.02362	7.29948	169.7	
34.0394	68.4496	2.82	-0.23	10.00	-20.00	7.326	0.02363	7.30135	173.2	
34.0494	68.4696	2.82	-0.23	10.00	-20.00	7.326	0.02363	7.30322	168.5	
34.0594	68.4896	2.82	-0.23	10.00	-20.00	7.326	0.02364	7.30510	168.8	
34.0694	68.5096	2.82	-0.23	10.00	-20.00	7.326	0.02364	7.30697	168.1	
34.0794	68.5296	2.82	-0.23	10.00	-20.00	7.326	0.02365	7.30884	165.1	
34.0894	68.5496	2.82	-0.23	10.00	-20.00	7.326	0.02366	7.31072	160.1	
34.0994	68.5696	2.82	-0.23	10.00	-20.00	7.326	0.02366	7.31259	157.6	
34.1094	68.5896	2.82	-0.23	10.00	-20.00	7.326	0.02367	7.31446	151.1	
34.1194	68.6096	2.82	-0.23	10.00	-20.00	7.326	0.02367	7.31633	152.5	
34.1294	68.6296	2.82	-0.23	10.00	-20.00	7.326	0.02368	7.31820	149.6	
34.1394	68.6496	2.82	-0.23	10.00	-20.00	7.326	0.02369	7.32007	150.4	
34.1494	68.6696	2.82	-0.23	10.00	-20.00	7.326	0.02369	7.32195	146.2	
34.1594	68.6896	2.82	-0.23	10.00	-20.00	7.326	0.02370	7.32382	145.0	
34.1694	68.7096	2.82	-0.23	10.00	-20.00	7.326	0.02370	7.32569	143.2	
34.1794	68.7296	2.82	-0.23	10.00	-20.00	7.326	0.02371	7.32756	140.3	
34.1894	68.7496	2.82	-0.23	10.00	-20.00	7.326	0.02372	7.32943	139.3	
34.1994	68.7696	2.82	-0.23	10.00	-20.00	7.326	0.02372	7.33130	138.0	
34.2094	68.7896	2.82	-0.23	10.00	-20.00	7.326	0.02373	7.33317	131.8	
34.2194	68.8096	2.82	-0.23	10.00	-20.00	7.326	0.02373	7.33504	136.3	
34.2294	68.8296	2.82	-0.23	10.00	-20.00	7.326	0.02374	7.33691	134.7	
34.2394	68.8496	2.82	-0.23	10.00	-20.00	7.326	0.02375	7.33877	134.2	
34.2494	68.8696	2.82	-0.23	10.00	-20.00	7.326	0.02375	7.34064	134.2	
34.2594	68.8896	2.82	-0.23	10.00	-20.00	7.326	0.02376	7.34251	129.4	
34.2694	68.9096	2.82	-0.23	10.00	-20.00	7.326	0.02377	7.34438	128.4	
34.2794	68.9296	2.82	-0.23	10.00	-20.00	7.326	0.02377	7.34625	126.9	
34.2894	68.9496	2.82	-0.23	10.00	-20.00	7.326	0.02378	7.34812	125.5	
34.2994	68.9696	2.82	-0.23	10.00	-20.00	7.326	0.02378	7.34998	126.3	
34.3094	68.9896	2.82	-0.23	10.00	-20.00	7.326	0.02379	7.35185	124.7	
34.3194	69.0096	2.82	-0.23	10.00	-20.00	7.326	0.02380	7.35372	124.0	
34.3294	69.0296	2.82	-0.23	10.00	-20.00	7.326	0.02380	7.35559	117.0	
34.3394	69.0496	2.82	-0.23	10.00	-20.00	7.326	0.02381	7.35745	108.7	
34.3494	69.0696	2.82	-0.23	10.00	-20.00	7.326	0.02381	7.35932	106.4	
34.3594	69.0896	2.82	-0.23	10.00	-20.00	7.326	0.02382	7.36118	100.7	
34.3694	69.1096	2.82	-0.23	10.00	-20.00	7.326	0.02382	7.36305	124.6	
34.3794	69.1296	2.82	-0.23	10.00	-20.00	7.326	0.02383	7.36492	958.1	
34.3894	69.1496	2.82	-0.23	10.00	-20.00	7.326	0.02384	7.36678	5084.4	
34.3994	69.1696	2.82	-0.23	10.00	-20.00	7.326	0.02384	7.36865	2947.5	
34.4094	69.1896	2.82	-0.23	10.00	-20.00	7.326	0.02385	7.37051	460.2	
34.4194	69.2096	2.82	-0.23	10.00	-20.00	7.326	0.02386	7.37238	79.1	
34.4294	69.2296	2.82	-0.23	10.00	-20.00	7.326	0.02386	7.37424	27.6	
34.4394	69.2496	2.82	-0.23	10.00	-20.00	7.326	0.02387	7.37611	9.3	
34.4494	69.2696	2.82	-0.23	10.00	-20.00	7.326	0.02387	7.37797	4.8	
34.4594	69.2896	2.82	-0.23	10.00	-20.00	7.326	0.02388	7.37984	3.8	
34.4694	69.3096	2.82	-0.23	10.00	-20.00	7.326	0.02389	7.38170	3.4	
34.4794	69.3296	2.82	-0.23	10.00	-20.00	7.326	0.02389	7.38356	3.2	
34.4894	69.3496	2.82	-0.23	10.00	-20.00	7.326	0.02390	7.38543	3.0	
34.4994	69.3696	2.82	-0.23	10.00	-20.00	7.326	0.02390	7.38729	2.2	
34.5094	69.3896	2.82	-0.23	10.00	-20.00	7.326	0.02391	7.38915	2.4	
34.5194	69.4096	2.82	-0.23	10.00	-20.00	7.326	0.02392	7.39102	2.6	
34.5294	69.4296	2.82	-0.23	10.00	-20.00	7.326	0.02392	7.39288	2.6	
34.5394	69.4496	2.82	-0.23	10.00	-20.00	7.326	0.02393	7.39474	2.2	
34.5494	69.4696	2.82	-0.23	10.00	-20.00	7.326	0.02393	7.39660	2.2	
34.5594	69.4896	2.82	-0.23	10.00	-20.00	7.326	0.02394	7.39846	2.2	
34.5694	69.5096	2.82	-0.23	10.00	-20.00	7.326	0.02395	7.40033	2.3	
34.5794	69.5296	2.82	-0.23	10.00	-20.00	7.326	0.02395	7.40219	2.4	
34.5894	69.5496	2.82	-0.23	10.00	-20.00	7.326	0.02396	7.40405	2.1	
34.5994	69.5696	2.82	-0.23	10.00	-20.00	7.326	0.02396	7.40591	1.9	
34.6094	69.5896	2.82	-0.23	10.00	-20.00	7.326	0.02397	7.40777	1.9	
34.6194	69.6096	2.82	-0.23	10.00	-20.00	7.326	0.02398	7.40963	1.8	
34.6294	69.6296	2.82	-0.23	10.00	-20.00	7.326	0.02398	7.41149	2.1	
